File: EIS_Data/Example-2/Example2a.txt
s05751_25deg, 26.02.2025, 15:11
Diameter[mm]: 1.300e+01  Thickness[mm]: 7.500e-01  Spacer Capacity[pF]: 0.000e+00  Spacer Area[mm^2] 0.000e+00  Edge Correction On  Electrode Thickness[mm]: 4.00e+00
Fixed value(s) :  AC Volt  [Vrms]=7.1000e-03
     Freq.[Hz]	      Zs'[ohm]	     Zs''[ohm]
 1e+06	 3805.59	-6318.06
 740530	 4688.15	-7845.94
 548380	 5868.02	-9679.41
 406090	 7498.58	-11842.3
 300730	 9615.29	-14189.9
 222700	 12388.6	-16886.5
 164910	 15855.3	-19586.5
 122120	 20057	-22305.7
 90436	 25053.5	-24780.8
 66970	 30709.7	-27031
 49593	 36987.9	-28702.7
 36725	 43716.3	-29689.5
 27196	 50606.5	-29908.8
 20140	 57497.1	-29330.7
 14914	 64032.4	-27979.6
 11044	 70044.2	-26053.5
 8178.6	 75419.1	-23675.7
 6056.5	 79960.7	-21026.7
 4485	 83711.4	-18327
 3321.3	 86705.7	-15750.4
 2459.5	 89083.3	-13459.5
 1821.3	 90948	-11500.8
 1348.8	 92434.4	-9902.52
 998.79	 93659.8	-8690.21
 739.64	 94714.9	-7757.01
 547.72	 95664.2	-7140.39
 405.6	 96569.1	-6766.17
 300.36	 97453.6	-6619.71
 222.43	 98358	-6649.11
 164.71	 99333.4	-6872.38
 121.98	 100356	-7266.44
 90.326	 101446	-7835.17
 66.889	 102640	-8577.78
 49.534	 103947	-9560.02
 36.681	 105378	-10808
 27.163	 106993	-12339.5
 20.115	 108811	-14214.2
 14.896	 110892	-16517.3
 11.031	 113303	-19337.7
 8.1687	 116110	-22740.1
 6.0492	 119423	-26882.5
 4.4796	 123351	-31857
 3.3173	 128033	-37842.6
 2.4565	 133631	-45004.9
 1.8191	 140335	-53513.8
 1.3471	 148481	-63661.8
 0.99759	 157900	-75851.8
 0.73874	 169218	-89925.5
 0.54706	 182837	-106778
 0.40511	 198988	-126909
 0.3	 218315	-150821